节点inter_Subt4__1__24.txt的数据

Date: Tue Dec 26 15:45:34 CST 2023
User: L-lab
Spectrometer: HR200306
触发模式: 0
积分时间 (秒): 1.000000E-1
Scans to average: 1
启用暗噪声校正: true
启用非线性校正: false
滑动平均宽度: 0
X轴模式: Wavelengths
Number of Pixels in Spectrum: 2110
>>>>>Begin Spectral Data<<<<<
183.73	-7.58
184.199	10.42
184.668	95.42
185.137	-19.58
185.606	14.42
186.075	31.42
186.543	-15.58
187.012	-25.58
187.481	-40.58
187.95	-23.58
188.419	6.42
188.887	-25.58
189.356	-16.58
189.825	-36.58
190.294	-8.58
190.762	-0.58
191.231	-102.58
191.7	-19.58
192.168	-23.58
192.637	17.42
193.105	-35.58
193.574	-21.58
194.043	-33.58
194.511	-26.58
194.98	-83.58
195.448	-44.58
195.917	-71.58
196.385	-46.58
196.854	-23.58
197.322	-111.58
197.79	-30.58
198.259	7.42
198.727	-90.58
199.195	-46.58
199.664	41.42
200.132	-92.58
200.6	40.42
201.069	-115.58
201.537	-102.58
202.005	-50.58
202.473	-28.58
202.942	-37.58
203.41	0.42
203.878	-24.58
204.346	-53.58
204.814	-43.58
205.282	-58.58
205.75	-47.58
206.218	-40.58
206.686	-101.58
207.155	-65.58
207.623	-37.58
208.091	-61.58
208.558	-50.58
209.026	-96.58
209.494	-25.58
209.962	-48.58
210.43	-44.58
210.898	-58.58
211.366	-75.58
211.834	-59.58
212.302	-52.58
212.769	48.42
213.237	-82.58
213.705	-56.58
214.173	-35.58
214.64	-23.58
215.108	-95.58
215.576	-40.58
216.043	-74.58
216.511	-63.58
216.979	-41.58
217.446	-44.58
217.914	-11.58
218.382	5.42
218.849	-4.58
219.317	-34.58
219.784	-110.58
220.252	95.42
220.719	-5.58
221.187	-2.58
221.654	-80.58
222.121	34.42
222.589	-3.58
223.056	-59.58
223.524	-65.58
223.991	-79.58
224.458	-58.58
224.926	-44.58
225.393	-15.58
225.86	-62.58
226.327	-91.58
226.795	4.42
227.262	-80.58
227.729	-28.58
228.196	-43.58
228.663	-59.58
229.13	37.42
229.598	-22.58
230.065	-71.58
230.532	-126.58
230.999	-9.58
231.466	-105.58
231.933	30.42
232.4	-31.58
232.867	-105.58
233.334	-22.58
233.801	-70.58
234.268	-72.58
234.735	-25.58
235.201	-21.58
235.668	-43.58
236.135	-5.58
236.602	-30.58
237.069	-58.58
237.536	-26.58
238.002	-57.58
238.469	-19.58
238.936	-38.58
239.403	-48.58
239.869	-91.58
240.336	-61.58
240.803	11.42
241.269	-86.58
241.736	-30.58
242.202	-62.58
242.669	18.42
243.136	-2.58
243.602	-49.58
244.069	-79.58
244.535	-60.58
245.002	-41.58
245.468	-59.58
245.934	52.42
246.401	-107.58
246.867	-122.58
247.334	-36.58
247.8	-116.58
248.266	-48.58
248.733	-76.58
249.199	-11.58
249.665	-14.58
250.132	-48.58
250.598	-13.58
251.064	10.42
251.53	-40.58
251.996	-62.58
252.463	-105.58
252.929	-97.58
253.395	130.42
253.861	-49.58
254.327	-49.58
254.793	-57.58
255.259	-20.58
255.725	-114.58
256.191	-20.58
256.657	-29.58
257.123	-65.58
257.589	-12.58
258.055	-94.58
258.521	-33.58
258.987	-26.58
259.453	-38.58
259.919	-65.58
260.384	-84.58
260.85	7.42
261.316	-31.58
261.782	-39.58
262.248	-67.58
262.713	-18.58
263.179	-64.58
263.645	49.42
264.11	-50.58
264.576	-16.58
265.042	-42.58
265.507	89.42
265.973	-20.58
266.439	-49.58
266.904	-27.58
267.37	-66.58
267.835	-59.58
268.301	-51.58
268.766	-98.58
269.232	-42.58
269.697	-68.58
270.162	-14.58
270.628	-60.58
271.093	21.42
271.559	23.42
272.024	-90.58
272.489	-22.58
272.955	27.42
273.42	16.42
273.885	-78.58
274.35	3.42
274.816	-132.58
275.281	-19.58
275.746	-94.58
276.211	-54.58
276.676	-36.58
277.141	-94.58
277.607	-43.58
278.072	-70.58
278.537	36.42
279.002	-105.58
279.467	6.42
279.932	-106.58
280.397	-58.58
280.862	13.42
281.327	-85.58
281.792	-63.58
282.257	-5.58
282.721	-111.58
283.186	-122.58
283.651	17.42
284.116	-1.58
284.581	-35.58
285.046	-61.58
285.51	-35.58
285.975	-126.58
286.44	-37.58
286.905	-29.58
287.369	-42.58
287.834	-100.58
288.299	-44.58
288.763	-85.58
289.228	-52.58
289.692	23.42
290.157	-92.58
290.621	-17.58
291.086	-80.58
291.55	-44.58
292.015	-106.58
292.479	-31.58
292.944	-41.58
293.408	-62.58
293.873	-64.58
294.337	-38.58
294.801	-85.58
295.266	11.42
295.73	-32.58
296.194	16.42
296.659	-102.58
297.123	-5.58
297.587	-64.58
298.052	-105.58
298.516	-53.58
298.98	-40.58
299.444	-21.58
299.908	-15.58
300.372	-31.58
300.836	-86.58
301.301	-6.58
301.765	-2.58
302.229	-63.58
302.693	-56.58
303.157	-65.58
303.621	-59.58
304.085	-1.58
304.549	-37.58
305.013	-56.58
305.476	-76.58
305.94	-47.58
306.404	-104.58
306.868	-76.58
307.332	13.42
307.796	-38.58
308.259	-65.58
308.723	-36.58
309.187	-52.58
309.651	-94.58
310.114	-30.58
310.578	9.42
311.042	-88.58
311.505	31.42
311.969	3.42
312.433	-61.58
312.896	-56.58
313.36	-130.58
313.823	-48.58
314.287	-23.58
314.75	-68.58
315.214	-46.58
315.677	-63.58
316.141	-51.58
316.604	-0.58
317.068	-41.58
317.531	-53.58
317.994	-106.58
318.458	-21.58
318.921	-59.58
319.384	-39.58
319.848	-69.58
320.311	-81.58
320.774	-53.58
321.237	-81.58
321.7	-47.58
322.164	-42.58
322.627	-64.58
323.09	-22.58
323.553	-25.58
324.016	46.42
324.479	-37.58
324.942	-68.58
325.405	-80.58
325.868	-30.58
326.331	-64.58
326.794	-62.58
327.257	-23.58
327.72	-34.58
328.183	-27.58
328.646	-93.58
329.109	-65.58
329.572	8.42
330.034	-58.58
330.497	-20.58
330.96	-29.58
331.423	-37.58
331.886	-33.58
332.348	-65.58
332.811	-69.58
333.274	-41.58
333.736	-3.58
334.199	-63.58
334.662	-107.58
335.124	-55.58
335.587	-30.58
336.049	-31.58
336.512	-41.58
336.974	-135.58
337.437	-86.58
337.899	19.42
338.362	-71.58
338.824	-47.58
339.287	-95.58
339.749	-12.58
340.212	-79.58
340.674	-15.58
341.136	6.42
341.599	-62.58
342.061	-71.58
342.523	7.42
342.985	-39.58
343.448	-36.58
343.91	-3.58
344.372	-55.58
344.834	-55.58
345.296	-19.58
345.758	-65.58
346.221	-47.58
346.683	-62.58
347.145	-25.58
347.607	-85.58
348.069	-19.58
348.531	-104.58
348.993	-88.58
349.455	-26.58
349.917	-96.58
350.379	-1.58
350.84	-99.58
351.302	20.42
351.764	-61.58
352.226	2.42
352.688	-30.58
353.15	-19.58
353.611	-83.58
354.073	-36.58
354.535	-76.58
354.997	-47.58
355.458	-33.58
355.92	-90.58
356.382	-7.58
356.843	-90.58
357.305	-80.58
357.767	-5.58
358.228	-23.58
358.69	-91.58
359.151	-17.58
359.613	-55.58
360.074	-89.58
360.536	40.42
360.997	-75.58
361.458	-21.58
361.92	-77.58
362.381	-56.58
362.843	-68.58
363.304	-56.58
363.765	-108.58
364.227	-115.58
364.688	-28.58
365.149	-53.58
365.61	-57.58
366.072	-25.58
366.533	-21.58
366.994	-36.58
367.455	-32.58
367.916	-46.58
368.377	21.42
368.838	-60.58
369.299	-3.58
369.761	-63.58
370.222	-84.58
370.683	-62.58
371.144	-55.58
371.604	10.42
372.065	14.42
372.526	-30.58
372.987	-43.58
373.448	-93.58
373.909	16.42
374.37	-65.58
374.831	-29.58
375.291	-28.58
375.752	-60.58
376.213	64.42
376.674	-12.58
377.134	6.42
377.595	-50.58
378.056	-81.58
378.516	-75.58
378.977	-26.58
379.438	-91.58
379.898	-29.58
380.359	-35.58
380.819	-106.58
381.28	-15.58
381.74	-75.58
382.201	-10.58
382.661	-87.58
383.122	-51.58
383.582	-61.58
384.042	-77.58
384.503	-80.58
384.963	-0.58
385.424	-73.58
385.884	-44.58
386.344	-81.58
386.804	-52.58
387.265	-88.58
387.725	31.42
388.185	-66.58
388.645	-7.58
389.105	-22.58
389.566	-45.58
390.026	-27.58
390.486	-97.58
390.946	-47.58
391.406	-64.58
391.866	-13.58
392.326	-37.58
392.786	-95.58
393.246	-67.58
393.706	8.42
394.166	10.42
394.626	-89.58
395.085	-10.58
395.545	-85.58
396.005	-44.58
396.465	-79.58
396.925	-53.58
397.385	-61.58
397.844	-82.58
398.304	-85.58
398.764	-80.58
399.223	-40.58
399.683	43.42
400.143	-16.58
400.602	-56.58
401.062	0.42
401.522	-61.58
401.981	-99.58
402.441	-35.58
402.9	-40.58
403.36	-32.58
403.819	-31.58
404.279	-79.58
404.738	-62.58
405.197	-34.58
405.657	-49.58
406.116	-55.58
406.576	-114.58
407.035	-14.58
407.494	-25.58
407.953	-115.58
408.413	-60.58
408.872	-63.58
409.331	-32.58
409.79	11.42
410.25	-73.58
410.709	-13.58
411.168	-36.58
411.627	-79.58
412.086	-48.58
412.545	-66.58
413.004	-84.58
413.463	-48.58
413.922	-103.58
414.381	-107.58
414.84	-74.58
415.299	-98.58
415.758	-38.58
416.217	-83.58
416.676	-43.58
417.135	-23.58
417.593	-17.58
418.052	-69.58
418.511	-40.58
418.97	-40.58
419.429	128.42
419.887	-7.58
420.346	-72.58
420.805	-83.58
421.263	25.42
421.722	-85.58
422.181	-88.58
422.639	-29.58
423.098	37.42
423.556	-32.58
424.015	-41.58
424.473	-75.58
424.932	-19.58
425.39	-62.58
425.849	-21.58
426.307	-16.58
426.765	-30.58
427.224	-54.58
427.682	-98.58
428.14	-12.58
428.599	-100.58
429.057	-8.58
429.515	-118.58
429.974	-51.58
430.432	7.42
430.89	73.42
431.348	-59.58
431.806	-66.58
432.264	-18.58
432.723	-18.58
433.181	-35.58
433.639	-4.58
434.097	-128.58
434.555	-46.58
435.013	-92.58
435.471	-83.58
435.929	-147.58
436.387	-34.58
436.845	-37.58
437.303	60.42
437.76	-113.58
438.218	10.42
438.676	-2.58
439.134	-42.58
439.592	-55.58
440.049	-39.58
440.507	-33.58
440.965	-35.58
441.423	-87.58
441.88	-109.58
442.338	6.42
442.796	-41.58
443.253	-32.58
443.711	-93.58
444.168	-59.58
444.626	-38.58
445.083	-50.58
445.541	34.42
445.998	-74.58
446.456	-22.58
446.913	9.42
447.371	-72.58
447.828	-90.58
448.285	0.42
448.743	-142.58
449.2	-70.58
449.657	-70.58
450.115	-125.58
450.572	-30.58
451.029	-59.58
451.486	-53.58
451.944	-14.58
452.401	-98.58
452.858	-69.58
453.315	-69.58
453.772	-52.58
454.229	-51.58
454.686	-64.58
455.143	-48.58
455.6	15.42
456.057	-45.58
456.514	-4.58
456.971	-43.58
457.428	-20.58
457.885	-55.58
458.342	-33.58
458.799	-102.58
459.256	-32.58
459.712	-45.58
460.169	5.42
460.626	-84.58
461.083	-52.58
461.539	-30.58
461.996	3.42
462.453	-4.58
462.909	-74.58
463.366	-55.58
463.823	-139.58
464.279	-67.58
464.736	111.42
465.192	-104.58
465.649	-84.58
466.105	-7.58
466.562	-36.58
467.018	-31.58
467.475	-35.58
467.931	-25.58
468.388	15.42
468.844	5.42
469.3	-56.58
469.757	-30.58
470.213	-107.58
470.669	-18.58
471.126	-40.58
471.582	-78.58
472.038	-40.58
472.494	-36.58
472.95	-46.58
473.406	-72.58
473.863	-50.58
474.319	-103.58
474.775	4.42
475.231	-73.58
475.687	-45.58
476.143	-93.58
476.599	32.42
477.055	-50.58
477.511	-23.58
477.967	-24.58
478.423	-74.58
478.879	-28.58
479.334	-24.58
479.79	-23.58
480.246	-80.58
480.702	-82.58
481.158	-76.58
481.613	-101.58
482.069	-26.58
482.525	12.42
482.98	18.42
483.436	-119.58
483.892	-14.58
484.347	-52.58
484.803	-22.58
485.258	-25.58
485.714	-81.58
486.169	-54.58
486.625	-76.58
487.08	-45.58
487.536	-44.58
487.991	-69.58
488.447	35.42
488.902	-67.58
489.357	-26.58
489.813	-34.58
490.268	-71.58
490.723	-33.58
491.179	-83.58
491.634	-22.58
492.089	-46.58
492.544	-75.58
493	-78.58
493.455	-51.58
493.91	-55.58
494.365	-13.58
494.82	-21.58
495.275	-24.58
495.73	-23.58
496.185	-2.58
496.64	-10.58
497.095	-36.58
497.55	19.42
498.005	-26.58
498.46	-77.58
498.915	32.42
499.37	-31.58
499.825	-93.58
500.279	-127.58
500.734	-46.58
501.189	-90.58
501.644	-35.58
502.098	-97.58
502.553	14.42
503.008	-77.58
503.462	-7.58
503.917	-16.58
504.372	-19.58
504.826	-13.58
505.281	-84.58
505.735	-47.58
506.19	-5.58
506.644	-63.58
507.099	-7.58
507.553	-100.58
508.008	-19.58
508.462	-21.58
508.917	-53.58
509.371	-39.58
509.825	-10.58
510.28	52.42
510.734	78.42
511.188	-49.58
511.642	-26.58
512.097	-0.58
512.551	-18.58
513.005	-41.58
513.459	-114.58
513.913	4.42
514.367	-123.58
514.822	-71.58
515.276	16.42
515.73	-45.58
516.184	-25.58
516.638	12.42
517.092	-85.58
517.546	-2.58
517.999	-60.58
518.453	-55.58
518.907	-44.58
519.361	-85.58
519.815	-47.58
520.269	-51.58
520.723	-63.58
521.176	-59.58
521.63	-101.58
522.084	-47.58
522.538	-104.58
522.991	-46.58
523.445	-103.58
523.898	-24.58
524.352	2.42
524.806	-80.58
525.259	-31.58
525.713	-120.58
526.166	-81.58
526.62	15.42
527.073	-11.58
527.527	-64.58
527.98	-41.58
528.433	-12.58
528.887	-90.58
529.34	-39.58
529.794	-49.58
530.247	-49.58
530.7	-87.58
531.153	-8.58
531.607	-82.58
532.06	-45.58
532.513	-31.58
532.966	-17.58
533.419	-51.58
533.872	-37.58
534.326	-52.58
534.779	-9.58
535.232	-27.58
535.685	-30.58
536.138	-34.58
536.591	-21.58
537.044	-78.58
537.497	-5.58
537.95	-23.58
538.402	-40.58
538.855	-121.58
539.308	7.42
539.761	-58.58
540.214	-16.58
540.667	-48.58
541.119	-28.58
541.572	-86.58
542.025	-18.58
542.477	-74.58
542.93	-49.58
543.383	-86.58
543.835	-45.58
544.288	-30.58
544.74	-88.58
545.193	-47.58
545.645	-85.58
546.098	-40.58
546.55	-63.58
547.003	-8.58
547.455	-26.58
547.908	-37.58
548.36	35.42
548.812	-14.58
549.265	-73.58
549.717	-77.58
550.169	-48.58
550.622	-57.58
551.074	-59.58
551.526	-84.58
551.978	14.42
552.43	-91.58
552.883	-111.58
553.335	-46.58
553.787	-75.58
554.239	29.42
554.691	-58.58
555.143	-99.58
555.595	-19.58
556.047	-90.58
556.499	-48.58
556.951	-85.58
557.403	-6.58
557.855	-48.58
558.307	8.42
558.758	-109.58
559.21	-80.58
559.662	-6.58
560.114	-54.58
560.565	-63.58
561.017	14.42
561.469	6.42
561.921	44.42
562.372	-82.58
562.824	-44.58
563.275	-15.58
563.727	-3.58
564.179	4.42
564.63	-57.58
565.082	-15.58
565.533	-40.58
565.985	-51.58
566.436	-27.58
566.887	8.42
567.339	-69.58
567.79	-15.58
568.242	35.42
568.693	0.42
569.144	-90.58
569.595	-102.58
570.047	31.42
570.498	-80.58
570.949	-57.58
571.4	-92.58
571.851	-38.58
572.303	96.42
572.754	-96.58
573.205	-41.58
573.656	16.42
574.107	-54.58
574.558	-84.58
575.009	-63.58
575.46	-64.58
575.911	-15.58
576.362	-87.58
576.813	-24.58
577.263	-18.58
577.714	-64.58
578.165	-92.58
578.616	-88.58
579.067	-16.58
579.517	-41.58
579.968	10.42
580.419	-64.58
580.87	-128.58
581.32	-95.58
581.771	-24.58
582.222	-15.58
582.672	7.42
583.123	-33.58
583.573	-1.58
584.024	46.42
584.474	-50.58
584.925	-46.58
585.375	-82.58
585.826	-128.58
586.276	-65.58
586.726	-1.58
587.177	-9.58
587.627	-124.58
588.077	-76.58
588.528	-49.58
588.978	0.42
589.428	-105.58
589.878	-14.58
590.328	-55.58
590.779	-18.58
591.229	-69.58
591.679	-42.58
592.129	-28.58
592.579	-27.58
593.029	-71.58
593.479	-95.58
593.929	10.42
594.379	-37.58
594.829	-32.58
595.279	-50.58
595.729	22.42
596.179	-55.58
596.628	52.42
597.078	-83.58
597.528	-116.58
597.978	-25.58
598.428	-7.58
598.877	-119.58
599.327	63.42
599.777	-105.58
600.226	-8.58
600.676	-103.58
601.126	3.42
601.575	-128.58
602.025	-49.58
602.474	-25.58
602.924	0.42
603.373	-13.58
603.823	-46.58
604.272	-60.58
604.722	36.42
605.171	-59.58
605.62	-153.58
606.07	-24.58
606.519	-72.58
606.968	-36.58
607.418	-70.58
607.867	-29.58
608.316	-68.58
608.765	-6.58
609.214	-20.58
609.664	-88.58
610.113	-23.58
610.562	-26.58
611.011	14.42
611.46	-76.58
611.909	-6.58
612.358	51.42
612.807	-22.58
613.256	-114.58
613.705	41.42
614.154	-116.58
614.603	-114.58
615.051	-40.58
615.5	-49.58
615.949	27.42
616.398	20.42
616.847	-19.58
617.295	-45.58
617.744	-25.58
618.193	-4.58
618.641	-95.58
619.09	-55.58
619.539	-81.58
619.987	-11.58
620.436	-75.58
620.884	-28.58
621.333	-59.58
621.781	-39.58
622.23	117.42
622.678	-70.58
623.127	-2.58
623.575	-36.58
624.024	-34.58
624.472	-70.58
624.92	25.42
625.369	-131.58
625.817	10.42
626.265	-14.58
626.713	-52.58
627.161	-63.58
627.61	-39.58
628.058	-6.58
628.506	-59.58
628.954	-70.58
629.402	-63.58
629.85	-61.58
630.298	-22.58
630.746	-108.58
631.194	-48.58
631.642	-15.58
632.09	-33.58
632.538	-19.58
632.986	18.42
633.434	-8.58
633.882	-34.58
634.329	-28.58
634.777	-58.58
635.225	-54.58
635.673	-33.58
636.12	-6.58
636.568	7.42
637.016	-74.58
637.463	15.42
637.911	-60.58
638.359	22.42
638.806	-6.58
639.254	-26.58
639.701	-47.58
640.149	-23.58
640.596	-40.58
641.044	-44.58
641.491	-52.58
641.938	-35.58
642.386	32.42
642.833	-21.58
643.281	-76.58
643.728	-83.58
644.175	-18.58
644.622	-17.58
645.07	-29.58
645.517	-126.58
645.964	-35.58
646.411	-14.58
646.858	-58.58
647.305	-60.58
647.752	-104.58
648.199	-6.58
648.646	33.42
649.093	-48.58
649.54	-82.58
649.987	8.42
650.434	-87.58
650.881	-69.58
651.328	-38.58
651.775	-26.58
652.222	-46.58
652.669	-65.58
653.115	-25.58
653.562	-60.58
654.009	-61.58
654.456	-54.58
654.902	-35.58
655.349	-99.58
655.796	-81.58
656.242	-13.58
656.689	-31.58
657.135	-30.58
657.582	-85.58
658.028	-33.58
658.475	-80.58
658.921	-18.58
659.368	-13.58
659.814	-56.58
660.26	-75.58
660.707	-64.58
661.153	-47.58
661.599	-33.58
662.046	-114.58
662.492	-42.58
662.938	-29.58
663.384	-33.58
663.831	-66.58
664.277	20.42
664.723	9.42
665.169	-16.58
665.615	-72.58
666.061	-65.58
666.507	-15.58
666.953	-21.58
667.399	18.42
667.845	-33.58
668.291	-50.58
668.737	-61.58
669.183	9.42
669.629	-60.58
670.075	-61.58
670.52	-101.58
670.966	-56.58
671.412	-111.58
671.858	-4.58
672.303	-67.58
672.749	25.42
673.195	-70.58
673.64	-53.58
674.086	-25.58
674.532	-41.58
674.977	3.42
675.423	-30.58
675.868	10.42
676.314	-16.58
676.759	71.42
677.205	-81.58
677.65	-87.58
678.095	-70.58
678.541	14.42
678.986	-45.58
679.431	-105.58
679.877	-25.58
680.322	-18.58
680.767	-30.58
681.212	-50.58
681.658	-31.58
682.103	-108.58
682.548	-6.58
682.993	15.42
683.438	-26.58
683.883	-45.58
684.328	-29.58
684.773	-80.58
685.218	-12.58
685.663	-30.58
686.108	-88.58
686.553	-8.58
686.998	-35.58
687.443	7.42
687.887	-33.58
688.332	-42.58
688.777	-59.58
689.222	-39.58
689.667	-59.58
690.111	41.42
690.556	-36.58
691.001	-26.58
691.445	121.42
691.89	-69.58
692.334	-100.58
692.779	-33.58
693.223	-94.58
693.668	-5.58
694.112	-35.58
694.557	-67.58
695.001	-42.58
695.446	-74.58
695.89	-34.58
696.334	31.42
696.779	-53.58
697.223	-44.58
697.667	-4.58
698.112	-74.58
698.556	-55.58
699	-68.58
699.444	-115.58
699.888	-21.58
700.332	25.42
700.777	-90.58
701.221	-49.58
701.665	86.42
702.109	-91.58
702.553	49.42
702.997	14.42
703.441	-33.58
703.885	-101.58
704.328	-38.58
704.772	-40.58
705.216	-52.58
705.66	-77.58
706.104	-4.58
706.548	-84.58
706.991	-133.58
707.435	-24.58
707.879	-79.58
708.322	-74.58
708.766	-44.58
709.21	-5.58
709.653	-58.58
710.097	-5.58
710.54	-17.58
710.984	-58.58
711.427	-33.58
711.871	-70.58
712.314	360.42
712.758	-53.58
713.201	25.42
713.644	-36.58
714.088	28.42
714.531	1.42
714.974	-60.58
715.418	-11.58
715.861	-22.58
716.304	-22.58
716.747	-44.58
717.19	-49.58
717.634	-32.58
718.077	-57.58
718.52	-112.58
718.963	-29.58
719.406	-98.58
719.849	-26.58
720.292	-15.58
720.735	-90.58
721.178	-7.58
721.621	-57.58
722.063	-9.58
722.506	14.42
722.949	15.42
723.392	-48.58
723.835	-76.58
724.277	-45.58
724.72	-44.58
725.163	-38.58
725.605	-36.58
726.048	-86.58
726.491	-52.58
726.933	10.42
727.376	-42.58
727.818	-118.58
728.261	-57.58
728.703	-5.58
729.146	-54.58
729.588	-30.58
730.031	-31.58
730.473	30.42
730.916	-33.58
731.358	-69.58
731.8	-28.58
732.242	-28.58
732.685	-77.58
733.127	-43.58
733.569	-21.58
734.011	-111.58
734.453	-12.58
734.896	-12.58
735.338	-69.58
735.78	-10.58
736.222	-105.58
736.664	-42.58
737.106	-99.58
737.548	-26.58
737.99	10.42
738.432	-6.58
738.874	-32.58
739.315	-56.58
739.757	-39.58
740.199	-53.58
740.641	-108.58
741.083	-115.58
741.524	11.42
741.966	-91.58
742.408	-10.58
742.849	-64.58
743.291	-79.58
743.733	28.42
744.174	-55.58
744.616	-88.58
745.057	-0.58
745.499	-111.58
745.94	-46.58
746.382	-23.58
746.823	0.42
747.265	-101.58
747.706	-72.58
748.147	4.42
748.589	-27.58
749.03	-20.58
749.471	-73.58
749.913	-33.58
750.354	-34.58
750.795	-65.58
751.236	-8.58
751.677	-26.58
752.118	-29.58
752.559	116.42
753.001	-25.58
753.442	-33.58
753.883	45.42
